LabVIEW Measurement	
Writer_Version	2
Reader_Version	2
Separator	Tab
Decimal_Separator	.
Multi_Headings	Yes
X_Columns	One
Time_Pref	Absolute
Operator	Klei6393
Date	2018/11/05
Time	10:57:44.6637459499425392665
***End_of_Header***	
	
Channels	1	
Samples	1000	
Date	2018/11/05	
Time	10:57:44.6637459499425392665	
Y_Unit_Label	Volts	
X_Dimension	Time	
X0	0.0000000000000000E+0	
Delta_X	0.100000	
***End_of_Header***		
X_Value	Voltage (Collected)	Comment
0.000000	0.910589
0.100000	0.989523
0.200000	1.197548
0.300000	1.289637
0.400000	1.570018
0.500000	1.753539
0.600000	1.867829
0.700000	1.995769
0.800000	2.071907
0.900000	2.024711
1.000000	1.888550
1.100000	1.770477
1.200000	1.633165
1.300000	1.359856
1.400000	1.220570
1.500000	1.101840
1.600000	0.963048
1.700000	1.024715
1.800000	1.040502
1.900000	1.174196
2.000000	1.381727
2.100000	1.520848
2.200000	1.710948
2.300000	1.876545
2.400000	1.959919
2.500000	1.990177
2.600000	1.974719
2.700000	1.904830
2.800000	1.764886
2.900000	1.588600
3.000000	1.428594
3.100000	1.237508
3.200000	1.117133
3.300000	1.051684
3.400000	1.015341
3.500000	1.104307
3.600000	1.205934
3.700000	1.360185
3.800000	1.550284
3.900000	1.699766
4.000000	1.826389
4.100000	1.929497
4.200000	1.968142
4.300000	1.934266
4.400000	1.855332
4.500000	1.746304
4.600000	1.586462
4.700000	1.412643
4.800000	1.274673
4.900000	1.148872
5.000000	1.071417
5.100000	1.069773
5.200000	1.119436
5.300000	1.240797
5.400000	1.379589
5.500000	1.541897
5.600000	1.693681
5.700000	1.812082
5.800000	1.897923
5.900000	1.932950
6.000000	1.907461
6.100000	1.834282
6.200000	1.717690
6.300000	1.576267
6.400000	1.419878
6.500000	1.284704
6.600000	1.175676
6.700000	1.100524
6.800000	1.105622
6.900000	1.147063
7.000000	1.252144
7.100000	1.393238
7.200000	1.535320
7.300000	1.674934
7.400000	1.795638
7.500000	1.874078
7.600000	1.909434
7.700000	1.883616
7.800000	1.816851
7.900000	1.707659
8.000000	1.570182
8.100000	1.427607
8.200000	1.297202
8.300000	1.187681
8.400000	1.135716
8.500000	1.123547
8.600000	1.178801
8.700000	1.274344
8.800000	1.397020
8.900000	1.541733
9.000000	1.673125
9.100000	1.776562
9.200000	1.854345
9.300000	1.883945
9.400000	1.862238
9.500000	1.788238
9.600000	1.689899
9.700000	1.566564
9.800000	1.429252
9.900000	1.314469
10.000000	1.216788
10.100000	1.158574
10.200000	1.157916
10.300000	1.201165
10.400000	1.294242
10.500000	1.414781
10.600000	1.542720
10.700000	1.659476
10.800000	1.762420
10.900000	1.829678
11.000000	1.855003
11.100000	1.833296
11.200000	1.771793
11.300000	1.676085
11.400000	1.561302
11.500000	1.434514
11.600000	1.322526
11.700000	1.228957
11.800000	1.179623
11.900000	1.179294
12.000000	1.220241
12.100000	1.304273
12.200000	1.416754
12.300000	1.541075
12.400000	1.655694
12.500000	1.753046
12.600000	1.815371
12.700000	1.833789
12.800000	1.815207
12.900000	1.753539
13.000000	1.669014
13.100000	1.553080
13.200000	1.438296
13.300000	1.334367
13.400000	1.247868
13.500000	1.203796
13.600000	1.201988
13.700000	1.247046
13.800000	1.327789
13.900000	1.433856
14.000000	1.549297
14.100000	1.650761
14.200000	1.737753
14.300000	1.795967
14.400000	1.815207
14.500000	1.795473
14.600000	1.737588
14.700000	1.652076
14.800000	1.541569
14.900000	1.432541
15.000000	1.335024
15.100000	1.258393
15.200000	1.219254
15.300000	1.216623
15.400000	1.261517
15.500000	1.342589
15.600000	1.440270
15.700000	1.550778
15.800000	1.650267
15.900000	1.732490
16.000000	1.786922
16.100000	1.800242
16.200000	1.775082
16.300000	1.721966
16.400000	1.641387
16.500000	1.538937
16.600000	1.436652
16.700000	1.342753
16.800000	1.276317
16.900000	1.239481
17.000000	1.238659
17.100000	1.278784
17.200000	1.351633
17.300000	1.451781
17.400000	1.552915
17.500000	1.642374
17.600000	1.715059
17.700000	1.767682
17.800000	1.780509
17.900000	1.756664
18.000000	1.708317
18.100000	1.629054
18.200000	1.531866
18.300000	1.439776
18.400000	1.351962
18.500000	1.286513
18.600000	1.255268
18.700000	1.260037
18.800000	1.299340
18.900000	1.373176
19.000000	1.460661
19.100000	1.554066
19.200000	1.642045
19.300000	1.710783
19.400000	1.753046
19.500000	1.768833
19.600000	1.744002
19.700000	1.692530
19.800000	1.617543
19.900000	1.528084
20.000000	1.437145
20.100000	1.355580
20.200000	1.297695
20.300000	1.267766
20.400000	1.274179
20.500000	1.315784
20.600000	1.385016
20.700000	1.471021
20.800000	1.557191
20.900000	1.641058
21.000000	1.705028
21.100000	1.742522
21.200000	1.747784
21.300000	1.723939
21.400000	1.676579
21.500000	1.602578
21.600000	1.521835
21.700000	1.432212
21.800000	1.361007
21.900000	1.304931
22.000000	1.281415
22.100000	1.291940
22.200000	1.330584
22.300000	1.395869
22.400000	1.477599
22.500000	1.564262
22.600000	1.640729
22.700000	1.692694
22.800000	1.731668
22.900000	1.734957
23.000000	1.709468
23.100000	1.659147
23.200000	1.590738
23.300000	1.507364
23.400000	1.431061
23.500000	1.362651
23.600000	1.315291
23.700000	1.295886
23.800000	1.303944
23.900000	1.346042
24.000000	1.405407
24.100000	1.485986
24.200000	1.566564
24.300000	1.633823
24.400000	1.688583
24.500000	1.719992
24.600000	1.719499
24.700000	1.695490
24.800000	1.645498
24.900000	1.577089
25.000000	1.499799
25.100000	1.432047
25.200000	1.368407
25.300000	1.325158
25.400000	1.312824
25.500000	1.323020
25.600000	1.361829
25.700000	1.423167
25.800000	1.496181
25.900000	1.571333
26.000000	1.631849
26.100000	1.681019
26.200000	1.705686
26.300000	1.709797
26.400000	1.682170
26.500000	1.637276
26.600000	1.572155
26.700000	1.498977
26.800000	1.428923
26.900000	1.368900
27.000000	1.329762
27.100000	1.316113
27.200000	1.331735
27.300000	1.373176
27.400000	1.430896
27.500000	1.501444
27.600000	1.570675
27.700000	1.631521
27.800000	1.678059
27.900000	1.702068
28.000000	1.696806
28.100000	1.674112
28.200000	1.623792
28.300000	1.560315
28.400000	1.490755
28.500000	1.424647
28.600000	1.370545
28.700000	1.340122
28.800000	1.330749
28.900000	1.346371
29.000000	1.389785
29.100000	1.446190
29.200000	1.512955
29.300000	1.578569
29.400000	1.632836
29.500000	1.674770
29.600000	1.690392
29.700000	1.682663
29.800000	1.653556
29.900000	1.608827
30.000000	1.547653
30.100000	1.481710
30.200000	1.422181
30.300000	1.370545
30.400000	1.343576
30.500000	1.336998
30.600000	1.354758
30.700000	1.397349
30.800000	1.453425
30.900000	1.516737
31.000000	1.580378
31.100000	1.629054
31.200000	1.666712
31.300000	1.678223
31.400000	1.675428
31.500000	1.643032
31.600000	1.595178
31.700000	1.537457
31.800000	1.479408
31.900000	1.419714
32.000000	1.376629
32.100000	1.351798
32.200000	1.348509
32.300000	1.371367
32.400000	1.414945
32.500000	1.465594
32.600000	1.527426
32.700000	1.586133
32.800000	1.632507
32.900000	1.663752
33.000000	1.677401
33.100000	1.665890
33.200000	1.633987
33.300000	1.590573
33.400000	1.530222
33.500000	1.472008
33.600000	1.422016
33.700000	1.379425
33.800000	1.353607
33.900000	1.356731
34.000000	1.378109
34.100000	1.422839
34.200000	1.478421
34.300000	1.535648
34.400000	1.591067
34.500000	1.633001
34.600000	1.657503
34.700000	1.665067
34.800000	1.647801
34.900000	1.622147
35.000000	1.576760
35.100000	1.521835
35.200000	1.464937
35.300000	1.417412
35.400000	1.378438
35.500000	1.360678
35.600000	1.369065
35.700000	1.393403
35.800000	1.431225
35.900000	1.485164
36.000000	1.540417
36.100000	1.591725
36.200000	1.628725
36.300000	1.656681
36.400000	1.661614
36.500000	1.643525
36.600000	1.613267
36.700000	1.566071
36.800000	1.512626
36.900000	1.460168
37.000000	1.415767
37.100000	1.384029
37.200000	1.368407
37.300000	1.374491
37.400000	1.399816
37.500000	1.444381
37.600000	1.493057
37.700000	1.547653
37.800000	1.592382
37.900000	1.630205
38.000000	1.647472
38.100000	1.652734
38.200000	1.635961
38.300000	1.600769
38.400000	1.555546
38.500000	1.503582
38.600000	1.453919
38.700000	1.415932
38.800000	1.386825
38.900000	1.375643
39.000000	1.388305
39.100000	1.418563
39.200000	1.458523
39.300000	1.505555
39.400000	1.551929
39.500000	1.594685
39.600000	1.626587
39.700000	1.645498
39.800000	1.640072
39.900000	1.618529
40.000000	1.586956
40.100000	1.545186
40.200000	1.500786
40.300000	1.451452
40.400000	1.411656
40.500000	1.389292
40.600000	1.384687
40.700000	1.399816
40.800000	1.428594
40.900000	1.470035
41.000000	1.515257
41.100000	1.557520
41.200000	1.597809
41.300000	1.621160
41.400000	1.634481
41.500000	1.630040
41.600000	1.612938
41.700000	1.580213
41.800000	1.540253
41.900000	1.495195
42.000000	1.447341
42.100000	1.413136
42.200000	1.394225
42.300000	1.392745
42.400000	1.405901
42.500000	1.436159
42.600000	1.474968
42.700000	1.517888
42.800000	1.560151
42.900000	1.598138
43.000000	1.623956
43.100000	1.631521
43.200000	1.622805
43.300000	1.600605
43.400000	1.569853
43.500000	1.530715
43.600000	1.483190
43.700000	1.446683
43.800000	1.419385
43.900000	1.400803
44.000000	1.397514
44.100000	1.415274
44.200000	1.442736
44.300000	1.485328
44.400000	1.528742
44.500000	1.567880
44.600000	1.596658
44.700000	1.620667
44.800000	1.625272
44.900000	1.613596
45.000000	1.594356
45.100000	1.563933
45.200000	1.523315
45.300000	1.477106
45.400000	1.437474
45.500000	1.414781
45.600000	1.409025
45.700000	1.410012
45.800000	1.423003
45.900000	1.453097
46.000000	1.492893
46.100000	1.531373
46.200000	1.569853
46.300000	1.600769
46.400000	1.619516
46.500000	1.622312
46.600000	1.608498
46.700000	1.582844
46.800000	1.546831
46.900000	1.510159
47.000000	1.469706
47.100000	1.440928
47.200000	1.418398
47.300000	1.410998
47.400000	1.415767
47.500000	1.436159
47.600000	1.464443
47.700000	1.499964
47.800000	1.539595
47.900000	1.570182
48.000000	1.594685
48.100000	1.614089
48.200000	1.615898
48.300000	1.601920
48.400000	1.573142
48.500000	1.538937
48.600000	1.502430
48.700000	1.468555
48.800000	1.439941
48.900000	1.422674
49.000000	1.412643
49.100000	1.422674
49.200000	1.441914
49.300000	1.470363
49.400000	1.508022
49.500000	1.543871
49.600000	1.577582
49.700000	1.598302
49.800000	1.611129
49.900000	1.607182
50.000000	1.594191
50.100000	1.567715
50.200000	1.531044
50.300000	1.495688
50.400000	1.462634
50.500000	1.435336
50.600000	1.419878
50.700000	1.417905
50.800000	1.428923
50.900000	1.448821
51.000000	1.481052
51.100000	1.514599
51.200000	1.550613
51.300000	1.577418
51.400000	1.597645
51.500000	1.605702
51.600000	1.604222
51.700000	1.584982
51.800000	1.556862
51.900000	1.522822
52.000000	1.490261
52.100000	1.460168
52.200000	1.437145
52.300000	1.427114
52.400000	1.425963
52.500000	1.439448
52.600000	1.465101
52.700000	1.488617
52.800000	1.520848
52.900000	1.551435
53.000000	1.578076
53.100000	1.592382
53.200000	1.597809
53.300000	1.591560
53.400000	1.573142
53.500000	1.547489
53.600000	1.516902
53.700000	1.488452
53.800000	1.457372
53.900000	1.440434
54.000000	1.430567
54.100000	1.432705
54.200000	1.445697
54.300000	1.470035
54.400000	1.504075
54.500000	1.533182
54.600000	1.561795
54.700000	1.580378
54.800000	1.594685
54.900000	1.596658
55.000000	1.582844
55.100000	1.565578
55.200000	1.538115
55.300000	1.507693
55.400000	1.479737
55.500000	1.453261
55.600000	1.439941
55.700000	1.435830
55.800000	1.439941
55.900000	1.453425
56.000000	1.477270
56.100000	1.509666
56.200000	1.534004
56.300000	1.560644
56.400000	1.579227
56.500000	1.588436
56.600000	1.587285
56.700000	1.581858
56.800000	1.556204
56.900000	1.534826
57.000000	1.509337
57.100000	1.479901
57.200000	1.457701
57.300000	1.441585
57.400000	1.435501
57.500000	1.443394
57.600000	1.460990
57.700000	1.484999
57.800000	1.514435
57.900000	1.544693
58.000000	1.563769
58.100000	1.579062
58.200000	1.584982
58.300000	1.581858
58.400000	1.566729
58.500000	1.550449
58.600000	1.523973
58.700000	1.495524
58.800000	1.472008
58.900000	1.457372
59.000000	1.447999
59.100000	1.443723
59.200000	1.455234
59.300000	1.469870
59.400000	1.495853
59.500000	1.522493
59.600000	1.547160
59.700000	1.567715
59.800000	1.579720
59.900000	1.588929
60.000000	1.582516
60.100000	1.565907
60.200000	1.546995
60.300000	1.521835
60.400000	1.495688
60.500000	1.471843
60.600000	1.451945
60.700000	1.443230
60.800000	1.445039
60.900000	1.461483
61.000000	1.472830
61.100000	1.497004
61.200000	1.525288
61.300000	1.546831
61.400000	1.567222
61.500000	1.578569
61.600000	1.583173
61.700000	1.576431
61.800000	1.560151
61.900000	1.537293
62.000000	1.513119
62.100000	1.484835
62.200000	1.471186
62.300000	1.456221
62.400000	1.451288
62.500000	1.451288
62.600000	1.460003
62.700000	1.478092
62.800000	1.502595
62.900000	1.529893
63.000000	1.554066
63.100000	1.566235
63.200000	1.577089
63.300000	1.576431
63.400000	1.564920
63.500000	1.552586
63.600000	1.528742
63.700000	1.507364
63.800000	1.487959
63.900000	1.472830
64.000000	1.459346
64.100000	1.455399
64.200000	1.462141
64.300000	1.469706
64.400000	1.486644
64.500000	1.510324
64.600000	1.528577
64.700000	1.546337
64.800000	1.562947
64.900000	1.569360
65.000000	1.571169
65.100000	1.560151
65.200000	1.544200
65.300000	1.524137
65.400000	1.498977
65.500000	1.476941
65.600000	1.462306
65.700000	1.459346
65.800000	1.459346
65.900000	1.465923
66.000000	1.476777
66.100000	1.494044
66.200000	1.512790
66.300000	1.532853
66.400000	1.550449
66.500000	1.563111
66.600000	1.567387
66.700000	1.569195
66.800000	1.557191
66.900000	1.541075
67.000000	1.519697
67.100000	1.497004
67.200000	1.479243
67.300000	1.465266
67.400000	1.460990
67.500000	1.461319
67.600000	1.473323
67.700000	1.485328
67.800000	1.503582
67.900000	1.521013
68.000000	1.536635
68.100000	1.553409
68.200000	1.560151
68.300000	1.562782
68.400000	1.557355
68.500000	1.546666
68.600000	1.531208
68.700000	1.511804
68.800000	1.494373
68.900000	1.478092
69.000000	1.466581
69.100000	1.463786
69.200000	1.465923
69.300000	1.472666
69.400000	1.489604
69.500000	1.505555
69.600000	1.521342
69.700000	1.540253
69.800000	1.553573
69.900000	1.560644
70.000000	1.563604
70.100000	1.554066
70.200000	1.545186
70.300000	1.528577
70.400000	1.511639
70.500000	1.496181
70.600000	1.477599
70.700000	1.469541
70.800000	1.466581
70.900000	1.469048
71.000000	1.480888
71.100000	1.486808
71.200000	1.511475
71.300000	1.531866
71.400000	1.545351
71.500000	1.556040
71.600000	1.558835
71.700000	1.557684
71.800000	1.551435
71.900000	1.537457
72.000000	1.524631
72.100000	1.505884
72.200000	1.490590
72.300000	1.475297
72.400000	1.466746
72.500000	1.466252
72.600000	1.472337
72.700000	1.485986
72.800000	1.501279
72.900000	1.520519
73.000000	1.535484
73.100000	1.548804
73.200000	1.557849
73.300000	1.564262
73.400000	1.557355
73.500000	1.548146
73.600000	1.533017
73.700000	1.513284
73.800000	1.499470
73.900000	1.483355
74.000000	1.473488
74.100000	1.466746
74.200000	1.469377
74.300000	1.478257
74.400000	1.487795
74.500000	1.502430
74.600000	1.520519
74.700000	1.531702
74.800000	1.544857
74.900000	1.554231
75.000000	1.556862
75.100000	1.553738
75.200000	1.542720
75.300000	1.530551
75.400000	1.510324
75.500000	1.499306
75.600000	1.485986
75.700000	1.475955
75.800000	1.474146
75.900000	1.470199
76.000000	1.481875
76.100000	1.491741
76.200000	1.509173
76.300000	1.524466
76.400000	1.538115
76.500000	1.545844
76.600000	1.550942
76.700000	1.548804
76.800000	1.544857
76.900000	1.534497
77.000000	1.522822
77.100000	1.508186
77.200000	1.494208
77.300000	1.480559
77.400000	1.472172
77.500000	1.471186
77.600000	1.471843
77.700000	1.484341
77.800000	1.497990
77.900000	1.510817
78.000000	1.523479
78.100000	1.536142
78.200000	1.550942
78.300000	1.549462
78.400000	1.550120
78.500000	1.542884
78.600000	1.532031
78.700000	1.516902
78.800000	1.498484
78.900000	1.489110
79.000000	1.477270
79.100000	1.476612
79.200000	1.473323
79.300000	1.482861
79.400000	1.488288
79.500000	1.505226
79.600000	1.520684
79.700000	1.531866
79.800000	1.543049
79.900000	1.552093
80.000000	1.550778
80.100000	1.548804
80.200000	1.542062
80.300000	1.527920
80.400000	1.519204
80.500000	1.502430
80.600000	1.493550
80.700000	1.484506
80.800000	1.479408
80.900000	1.482204
81.000000	1.484012
81.100000	1.495524
81.200000	1.507035
81.300000	1.520026
81.400000	1.531208
81.500000	1.539595
81.600000	1.545186
81.700000	1.546337
81.800000	1.541404
81.900000	1.531537
82.000000	1.521013
82.100000	1.508350
82.200000	1.497661
82.300000	1.485986
82.400000	1.479901
82.500000	1.475461
82.600000	1.480230
82.700000	1.489768
82.800000	1.497004
82.900000	1.509995
83.000000	1.520355
83.100000	1.533511
83.200000	1.541897
83.300000	1.543213
83.400000	1.541404
83.500000	1.537293
83.600000	1.529071
83.700000	1.519533
83.800000	1.507364
83.900000	1.496181
84.000000	1.490261
84.100000	1.481052
84.200000	1.481217
84.300000	1.486972
84.400000	1.492728
84.500000	1.501444
84.600000	1.515257
84.700000	1.526275
84.800000	1.536471
84.900000	1.540911
85.000000	1.542720
85.100000	1.538444
85.200000	1.533017
85.300000	1.524466
85.400000	1.515093
85.500000	1.500293
85.600000	1.491577
85.700000	1.483026
85.800000	1.480395
85.900000	1.479079
86.000000	1.484835
86.100000	1.495688
86.200000	1.509666
86.300000	1.519862
86.400000	1.531208
86.500000	1.538444
86.600000	1.547817
86.700000	1.545515
86.800000	1.541569
86.900000	1.535977
87.000000	1.525288
87.100000	1.515915
87.200000	1.505555
87.300000	1.494537
87.400000	1.489110
87.500000	1.489439
87.600000	1.490261
87.700000	1.493057
87.800000	1.501115
87.900000	1.511310
88.000000	1.522493
88.100000	1.531702
88.200000	1.539266
88.300000	1.545515
88.400000	1.544035
88.500000	1.540253
88.600000	1.528413
88.700000	1.523315
88.800000	1.509995
88.900000	1.497661
89.000000	1.489110
89.100000	1.482532
89.200000	1.485821
89.300000	1.486479
89.400000	1.493879
89.500000	1.505719
89.600000	1.517066
89.700000	1.527097
89.800000	1.533346
89.900000	1.539760
90.000000	1.543213
90.100000	1.539760
90.200000	1.533182
90.300000	1.526111
90.400000	1.519204
90.500000	1.508350
90.600000	1.498155
90.700000	1.489932
90.800000	1.487301
90.900000	1.494373
91.000000	1.492235
91.100000	1.498977
91.200000	1.506870
91.300000	1.515586
91.400000	1.522986
91.500000	1.531373
91.600000	1.534826
91.700000	1.538444
91.800000	1.536635
91.900000	1.529071
92.000000	1.521342
92.100000	1.511804
92.200000	1.503910
92.300000	1.497004
92.400000	1.490261
92.500000	1.489110
92.600000	1.492564
92.700000	1.497497
92.800000	1.501773
92.900000	1.515751
93.000000	1.526111
93.100000	1.530715
93.200000	1.532360
93.300000	1.536964
93.400000	1.538115
93.500000	1.536142
93.600000	1.528084
93.700000	1.519862
93.800000	1.509830
93.900000	1.499470
94.000000	1.494044
94.100000	1.487959
94.200000	1.486644
94.300000	1.492070
94.400000	1.496839
94.500000	1.503910
94.600000	1.516408
94.700000	1.525782
94.800000	1.531702
94.900000	1.536471
95.000000	1.539924
95.100000	1.536635
95.200000	1.534333
95.300000	1.525617
95.400000	1.518546
95.500000	1.505719
95.600000	1.501608
95.700000	1.498484
95.800000	1.491906
95.900000	1.491084
96.000000	1.492564
96.100000	1.499141
96.200000	1.511639
96.300000	1.519862
96.400000	1.527920
96.500000	1.531373
96.600000	1.533017
96.700000	1.532524
96.800000	1.531044
96.900000	1.530386
97.000000	1.522986
97.100000	1.513777
97.200000	1.508679
97.300000	1.498484
97.400000	1.494537
97.500000	1.495195
97.600000	1.496346
97.700000	1.497990
97.800000	1.502101
97.900000	1.509008
98.000000	1.517231
98.100000	1.523644
98.200000	1.531537
98.300000	1.538115
98.400000	1.535320
98.500000	1.532853
98.600000	1.525124
98.700000	1.518217
98.800000	1.509173
98.900000	1.503746
99.000000	1.496181
99.100000	1.495195
99.200000	1.493221
99.300000	1.494866
99.400000	1.496510
99.500000	1.506542
99.600000	1.509995
99.700000	1.523151
99.800000	1.526604
99.900000	1.533017

